File: supplements/esm1/data/tga-calibration.csv
PET,IS,mz105norm,mz154norm
5.6,without,3.26E-11,6.11E-12
10.6,without,4.06E-11,2.04E-11
22.1,without,8.20E-11,4.22E-11
30.8,without,1.46E-10,7.26E-11
41.8,without,1.64E-10,9.23E-11
7.1,without,5.79E-11,9.16E-12
10.6,without,6.41E-11,1.04E-11
19.3,without,9.38E-11,1.84E-11
29.6,without,1.55E-10,4.64E-11
40.3,without,2.33E-10,6.68E-11
0,without,2.74E-11,2.27E-11
0,without,2.74E-11,1.04E-11
0,without,2.47E-11,1.22E-11
0,without,3.58E-11,1.60E-11
0,without,3.04E-11,1.45E-11
0,without,2.73E-11,1.72E-11
3.5,with,0.00672917,0.00129538
5.2,with,0.0127335,7.13E-04
8.9,with,0.0223716,0.00112704
20.2,with,0.0464855,0.00244777
28.2,with,0.0726617,0.00324054
38.9,with,0.0993006,0.00474722
45.9,with,0.138811,0.00834345
2.3,with,0.00642611,0.00121717
5.2,with,0.0107621,4.30E-04
10.4,with,0.0239903,1.07E-04
20.4,with,0.0513023,0.00243503
29.5,with,0.085979,0.00493749
36.8,with,0.102394,0.00590171
44.4,with,0.12899,0.00705904
0,with,4.18E-03,4.88E-04
0,with,2.00E-03,5.31E-04
0,with,2.78E-03,5.66E-04
0,with,2.62E-03,4.89E-04
0,with,3.28E-03,5.52E-04
0,with,3.20E-03,5.15E-04